%frequency(Hz) density(kg/m3), real/imag bulk modulus(Pa), real/imag
100       1.43257  -8.72485       101582  2796.01
102.341       1.43257  -8.52539       101594  2860.39
104.737       1.43257  -8.3305       101606  2926.2
107.189       1.43256  -8.14006       101619  2993.47
109.699       1.43256  -7.95399       101632  3062.23
112.267       1.43256  -7.77218       101646  3132.51
114.895       1.43255  -7.59453       101660  3204.33
117.585       1.43255  -7.42095       101676  3277.72
120.338       1.43255  -7.25134       101692  3352.72
123.155       1.43254  -7.08562       101708  3429.34
126.038       1.43254  -6.92369       101726  3507.64
128.989       1.43254  -6.76546       101744  3587.62
132.009       1.43253  -6.61086       101763  3669.32
135.099       1.43253  -6.45981       101783  3752.78
138.262       1.43252  -6.31221       101804  3838.02
141.499       1.43252  -6.16799       101826  3925.07
144.812       1.43251  -6.02708       101849  4013.96
148.202       1.43251  -5.88939       101873  4104.72
151.672       1.4325  -5.75486       101898  4197.38
155.223       1.4325  -5.6234       101924  4291.97
158.857       1.43249  -5.49497       101952  4388.52
162.576       1.43249  -5.36947       101980  4487.05
166.382       1.43248  -5.24685       102010  4587.59
170.277       1.43247  -5.12704       102042  4690.18
174.263       1.43247  -5.00997       102074  4794.83
178.343       1.43246  -4.89559       102109  4901.57
182.518       1.43245  -4.78383       102144  5010.43
186.791       1.43244  -4.67463       102182  5121.44
191.164       1.43244  -4.56794       102220  5234.6
195.64       1.43243  -4.46369       102261  5349.95
200.22       1.43242  -4.36183       102304  5467.5
204.907       1.43241  -4.26231       102348  5587.28
209.705       1.4324  -4.16507       102394  5709.29
214.614       1.43239  -4.07006       102443  5833.57
219.639       1.43238  -3.97723       102493  5960.1
224.781       1.43236  -3.88653       102546  6088.92
230.043       1.43235  -3.79792       102601  6220.03
235.429       1.43234  -3.71133       102658  6353.43
240.94       1.43233  -3.62674       102718  6489.13
246.581       1.43231  -3.54408       102781  6627.12
252.354       1.4323  -3.46333       102846  6767.41
258.262       1.43228  -3.38443       102914  6909.99
264.308       1.43227  -3.30734       102985  7054.85
270.496       1.43225  -3.23202       103058  7201.98
276.829       1.43223  -3.15844       103135  7351.36
283.31       1.43221  -3.08654       103215  7502.96
289.942       1.43219  -3.0163       103299  7656.76
296.73       1.43217  -2.94767       103385  7812.74
303.677       1.43215  -2.88062       103476  7970.84
310.787       1.43213  -2.81512       103570  8131.04
318.063       1.43211  -2.75112       103668  8293.28
325.509       1.43208  -2.6886       103769  8457.52
333.129       1.43206  -2.62751       103875  8623.68
340.929       1.43203  -2.56783       103985  8791.71
348.91       1.432  -2.50953       104099  8961.53
357.079       1.43197  -2.45257       104218  9133.06
365.438       1.43194  -2.39692       104341  9306.21
373.994       1.43191  -2.34256       104469  9480.89
382.749       1.43188  -2.28945       104601  9656.99
391.71       1.43184  -2.23757       104739  9834.41
400.881       1.43181  -2.18689       104881  10013
410.266       1.43177  -2.13737       105029  10192.7
419.871       1.43173  -2.08901       105182  10373.3
429.7       1.43168  -2.04175       105340  10554.7
439.76       1.43164  -1.9956       105504  10736.7
450.056       1.43159  -1.95051       105673  10919.2
460.592       1.43155  -1.90646       105848  11101.9
471.375       1.4315  -1.86344       106029  11284.8
482.411       1.43144  -1.82141       106216  11467.6
493.705       1.43139  -1.78036       106409  11650.1
505.263       1.43133  -1.74026       106608  11832.1
517.092       1.43127  -1.7011       106812  12013.4
529.198       1.43121  -1.66284       107024  12193.7
541.587       1.43114  -1.62547       107241  12372.9
554.266       1.43107  -1.58898       107464  12550.7
567.243       1.431  -1.55333       107694  12726.8
580.523       1.43092  -1.51852       107930  12901
594.113       1.43084  -1.48451       108173  13073
608.022       1.43076  -1.4513       108422  13242.5
622.257       1.43067  -1.41887       108677  13409.3
636.825       1.43058  -1.3872       108938  13573.1
651.734       1.43049  -1.35627       109205  13733.7
666.992       1.43039  -1.32606       109478  13890.7
682.607       1.43028  -1.29656       109758  14043.8
698.588       1.43017  -1.26776       110043  14192.9
714.943       1.43006  -1.23963       110334  14337.5
731.681       1.42994  -1.21217       110631  14477.5
748.81       1.42982  -1.18535       110933  14612.5
766.341       1.42969  -1.15917       111240  14742.4
784.282       1.42955  -1.1336       111552  14866.7
802.643       1.42941  -1.10864       111869  14985.4
821.434       1.42926  -1.08427       112191  15098.1
840.665       1.42911  -1.06048       112517  15204.5
860.346       1.42895  -1.03726       112847  15304.6
880.488       1.42878  -1.01459       113182  15398.1
901.102       1.4286  -0.99246       113519  15484.7
922.198       1.42842  -0.970858       113860  15564.3
943.788       1.42822  -0.949774       114204  15636.8
965.883       1.42802  -0.929195       114550  15702
988.496       1.42781  -0.90911       114899  15759.8
1011.64       1.42759  -0.889508       115249  15810.1
1035.32       1.42737  -0.870378       115601  15852.8
1059.56       1.42713  -0.851711       115955  15887.8
1084.37       1.42688  -0.833495       116309  15915.1
1109.75       1.42662  -0.81572       116663  15934.7
1135.73       1.42635  -0.798378       117018  15946.6
1162.32       1.42607  -0.781458       117372  15950.7
1189.53       1.42577  -0.76495       117726  15947.2
1217.38       1.42547  -0.748846       118079  15936.1
1245.88       1.42515  -0.733136       118430  15917.5
1275.05       1.42481  -0.717812       118780  15891.5
1304.9       1.42447  -0.702865       119127  15858.2
1335.45       1.42411  -0.688287       119473  15817.8
1366.72       1.42373  -0.674069       119815  15770.5
1398.71       1.42334  -0.660203       120155  15716.3
1431.46       1.42293  -0.646681       120491  15655.6
1464.97       1.42251  -0.633496       120824  15588.5
1499.27       1.42207  -0.620639       121153  15515.2
1534.37       1.42161  -0.608104       121478  15436
1570.29       1.42114  -0.595882       121799  15351.2
1607.05       1.42064  -0.583967       122115  15260.9
1644.68       1.42013  -0.572351       122427  15165.5
1683.18       1.4196  -0.561028       122733  15065.3
1722.59       1.41905  -0.54999       123035  14960.4
1762.91       1.41847  -0.539232       123331  14851.2
1804.19       1.41788  -0.528745       123623  14738
1846.42       1.41726  -0.518524       123908  14621
1889.65       1.41663  -0.508563       124189  14500.6
1933.89       1.41596  -0.498854       124464  14377
1979.17       1.41528  -0.489392       124733  14250.5
2025.5       1.41457  -0.480171       124997  14121.4
2072.92       1.41384  -0.471184       125254  13990
2121.45       1.41309  -0.462426       125507  13856.5
2171.12       1.4123  -0.453891       125754  13721.2
2221.95       1.4115  -0.445573       125995  13584.4
2273.97       1.41067  -0.437465       126230  13446.3
2327.2       1.40981  -0.429564       126460  13307.1
2381.69       1.40892  -0.421862       126685  13167.2
2437.44       1.40801  -0.414355       126904  13026.6
2494.51       1.40707  -0.407038       127118  12885.7
2552.91       1.40611  -0.399904       127327  12744.7
2612.68       1.40512  -0.392948       127530  12603.7
2673.84       1.4041  -0.386166       127729  12462.9
2736.44       1.40305  -0.379553       127922  12322.5
2800.5       1.40198  -0.373102       128111  12182.7
2866.07       1.40088  -0.366811       128296  12043.6
2933.17       1.39975  -0.360672       128475  11905.3
3001.84       1.39859  -0.354682       128651  11768.1
3072.11       1.39741  -0.348836       128822  11632
3144.04       1.3962  -0.34313       128989  11497.1
3217.64       1.39497  -0.337558       129152  11363.6
3292.97       1.39371  -0.332116       129312  11231.5
3370.06       1.39243  -0.326801       129467  11100.9
3448.96       1.39112  -0.321607       129619  10972
3529.71       1.38979  -0.31653       129768  10844.6
3612.34       1.38843  -0.311567       129913  10719
3696.91       1.38705  -0.306714       130056  10595.2
3783.46       1.38566  -0.301965       130195  10473.1
3872.04       1.38424  -0.297319       130332  10352.9
3962.69       1.3828  -0.292771       130466  10234.5
4055.46       1.38134  -0.288318       130597  10118
4150.4       1.37987  -0.283956       130726  10003.4
4247.57       1.37837  -0.279682       130853  9890.61
4347.01       1.37687  -0.275492       130977  9779.71
4448.78       1.37535  -0.271385       131099  9670.67
4552.94       1.37381  -0.267356       131220  9563.47
4659.53       1.37227  -0.263403       131338  9458.08
4768.61       1.37071  -0.259524       131455  9354.49
4880.25       1.36914  -0.255716       131570  9252.66
4994.51       1.36757  -0.251976       131683  9152.56
5111.43       1.36599  -0.248302       131795  9054.15
5231.1       1.3644  -0.244693       131906  8957.38
5353.57       1.36281  -0.241145       132015  8862.22
5478.9       1.36122  -0.237658       132123  8768.62
5607.17       1.35962  -0.234228       132229  8676.53
5738.44       1.35802  -0.230856       132335  8585.89
5872.79       1.35642  -0.227538       132440  8496.67
6010.28       1.35483  -0.224274       132543  8408.81
6150.99       1.35323  -0.221062       132646  8322.25
6294.99       1.35164  -0.2179       132747  8236.96
6442.36       1.35006  -0.214789       132848  8152.86
6593.19       1.34848  -0.211726       132947  8069.92
6747.54       1.3469  -0.20871       133046  7988.08
6905.51       1.34533  -0.205741       133144  7907.3
7067.18       1.34377  -0.202817       133242  7827.53
7232.63       1.34222  -0.199938       133338  7748.72
7401.96       1.34068  -0.197104       133434  7670.83
7575.25       1.33915  -0.194312       133528  7593.82
7752.6       1.33762  -0.191563       133623  7517.65
7934.1       1.33611  -0.188855       133716  7442.28
8119.84       1.33461  -0.186189       133808  7367.67
8309.94       1.33312  -0.183564       133900  7293.81
8504.49       1.33164  -0.180978       133991  7220.64
8703.59       1.33017  -0.178432       134081  7148.15
8907.35       1.32872  -0.175925       134171  7076.32
9115.89       1.32728  -0.173456       134259  7005.12
9329.3       1.32585  -0.171026       134347  6934.53
9547.72       1.32443  -0.168632       134434  6864.53
9771.24       1.32303  -0.166275       134520  6795.11
10000       1.32164  -0.163955       134606  6726.26
